# Gaia nominal RP band response curve in terms of energy
# Column 1: wavelength [Angstroms]
# Column 2: response []
3210 0.00000
3230 0.00000
3250 0.00000
3270 0.00000
3290 0.00001
3310 0.00001
3330 0.00002
3350 0.00003
3370 0.00004
3390 0.00005
3410 0.00009
3430 0.00007
3450 0.00009
3470 0.00007
3490 0.00002
3510 0.00002
3530 0.00002
3550 0.00002
3570 0.00002
3590 0.00002
3610 0.00001
3630 0.00002
3640 0.00001
3650 0.00001
3670 0.00002
3690 0.00001
3710 0.00001
3730 0.00002
3750 0.00001
3770 0.00001
3790 0.00001
3810 0.00001
3830 0.00001
3850 0.00001
3870 0.00002
3890 0.00002
3910 0.00002
3930 0.00003
3950 0.00004
3970 0.00003
3990 0.00005
4010 0.00007
4030 0.00006
4050 0.00004
4070 0.00005
4090 0.00005
4110 0.00006
4130 0.00007
4150 0.00009
4170 0.00007
4190 0.00004
4210 0.00005
4230 0.00004
4250 0.00004
4270 0.00003
4290 0.00004
4310 0.00004
4330 0.00005
4350 0.00005
4370 0.00006
4390 0.00005
4410 0.00004
4430 0.00004
4450 0.00003
4470 0.00003
4490 0.00004
4510 0.00002
4530 0.00003
4550 0.00004
4570 0.00003
4590 0.00004
4610 0.00003
4630 0.00003
4650 0.00003
4670 0.00003
4690 0.00003
4710 0.00003
4730 0.00003
4750 0.00003
4770 0.00004
4790 0.00004
4810 0.00004
4830 0.00004
4850 0.00003
4870 0.00004
4890 0.00004
4910 0.00004
4930 0.00004
4950 0.00004
4970 0.00005
4990 0.00004
5010 0.00004
5030 0.00004
5050 0.00005
5070 0.00004
5090 0.00005
5110 0.00004
5130 0.00003
5150 0.00003
5170 0.00004
5190 0.00004
5210 0.00005
5230 0.00004
5250 0.00004
5270 0.00005
5290 0.00005
5310 0.00005
5330 0.00005
5350 0.00005
5370 0.00007
5390 0.00006
5410 0.00006
5430 0.00008
5450 0.00009
5470 0.00007
5490 0.00007
5510 0.00005
5530 0.00006
5550 0.00007
5570 0.00007
5590 0.00007
5610 0.00007
5630 0.00006
5650 0.00007
5670 0.00008
5690 0.00008
5710 0.00006
5730 0.00007
5750 0.00006
5770 0.00010
5790 0.00010
5810 0.00010
5830 0.00010
5850 0.00014
5870 0.00013
5890 0.00013
5910 0.00014
5930 0.00010
5950 0.00011
5970 0.00010
5990 0.00010
6010 0.00012
6030 0.00011
6050 0.00014
6070 0.00017
6090 0.00018
6110 0.00023
6130 0.00030
6150 0.00039
6170 0.00054
6190 0.00076
6210 0.00111
6230 0.00172
6250 0.00273
6270 0.00456
6290 0.00789
6310 0.01445
6330 0.02765
6350 0.05550
6370 0.11462
6390 0.23336
6410 0.42005
6430 0.62855
6450 0.76587
6470 0.82421
6490 0.83136
6510 0.83713
6530 0.83931
6550 0.84255
6570 0.84462
6590 0.84677
6610 0.84661
6630 0.84424
6650 0.84793
6670 0.85039
6690 0.85170
6710 0.85362
6730 0.85801
6750 0.85768
6770 0.85682
6790 0.85713
6810 0.85960
6830 0.85805
6850 0.86154
6870 0.86086
6890 0.86656
6910 0.86958
6930 0.87441
6950 0.88087
6970 0.88981
6990 0.89609
7010 0.90408
7030 0.90594
7050 0.91028
7070 0.91805
7090 0.92180
7110 0.92918
7130 0.93260
7150 0.93701
7170 0.93769
7190 0.93899
7210 0.94591
7230 0.94783
7250 0.95015
7270 0.95678
7290 0.95699
7310 0.96190
7330 0.96703
7350 0.96742
7370 0.97050
7390 0.97095
7410 0.97533
7430 0.97169
7450 0.97527
7470 0.97728
7490 0.97963
7510 0.97824
7530 0.98385
7550 0.98490
7570 0.98700
7590 0.99047
7610 0.98921
7630 0.99479
7650 0.99637
7670 0.99373
7690 0.99645
7710 0.99779
7730 0.99900
7750 0.99626
7770 0.99178
7790 1.00000
7810 0.99596
7830 0.99964
7850 0.99263
7870 0.99237
7890 0.99133
7910 0.99099
7930 0.99128
7950 0.98861
7970 0.98908
7990 0.98584
8010 0.98468
8030 0.98737
8050 0.98359
8070 0.98335
8090 0.98389
8110 0.98616
8130 0.98753
8150 0.98501
8170 0.98057
8190 0.97857
8210 0.97547
8230 0.97390
8250 0.97069
8270 0.96654
8290 0.95856
8310 0.95430
8330 0.95005
8350 0.94805
8370 0.93982
8390 0.93708
8410 0.93102
8430 0.92846
8450 0.92458
8470 0.92379
8490 0.90132
8510 0.89901
8530 0.89251
8550 0.89335
8570 0.89130
8590 0.88617
8610 0.87537
8630 0.87377
8650 0.86601
8670 0.85831
8690 0.85516
8710 0.84243
8730 0.84072
8750 0.82826
8770 0.82022
8790 0.81012
8810 0.80095
8830 0.79173
8850 0.78497
8870 0.77367
8890 0.76889
8910 0.75859
8930 0.74435
8950 0.73639
8970 0.72767
8990 0.71752
9010 0.70806
9030 0.69842
9050 0.68636
9070 0.67663
9090 0.66825
9110 0.65519
9130 0.64082
9150 0.63069
9170 0.62216
9190 0.60888
9210 0.59657
9230 0.58413
9250 0.57265
9270 0.56204
9290 0.54780
9310 0.53717
9330 0.52717
9350 0.51516
9370 0.50275
9390 0.48923
9410 0.47813
9430 0.46498
9450 0.45368
9470 0.44237
9490 0.43223
9510 0.41865
9530 0.40885
9550 0.39681
9570 0.38520
9590 0.37332
9610 0.36225
9630 0.35131
9650 0.33958
9670 0.32862
9690 0.31754
9710 0.30585
9730 0.29516
9750 0.28414
9770 0.27384
9790 0.26303
9810 0.25179
9830 0.24076
9850 0.23132
9870 0.22188
9890 0.21195
9910 0.20217
9930 0.19260
9950 0.18321
9970 0.17425
9990 0.16614
10025 0.15109
10075 0.13109
10125 0.11225
10175 0.09524
10225 0.07945
10275 0.06624
10325 0.05409
10375 0.04362
10425 0.03445
10475 0.02657
10525 0.02007
10575 0.01477
10625 0.01068
10675 0.00774
10725 0.00566
10775 0.00410
10825 0.00284
10875 0.00184
10925 0.00111
10975 0.00064
11025 0.00000
